File: Experimental data/Figure 4- Ex situ and in situ-R space.txt
# XDI/1.0 Demeter/0.9.26
# Demeter.output_filetype: multicolumn magnitude of chi(R)
# Element.symbol: Ru
# Element.edge: K
# Column.1: R Angstrom
# Column.2: RuSA-RT-fresh-3
# Column.3: Ru-520H2-RT-2
# Column.4: Ru-520H2-520du-reaction-jinbian-6
# Column.5: Ru-520H2-520du-reaction-jinbian-61
# Column.6: Ru-520H2-520du-reaction-jinbian-62
# Column.7: Ru-520H2-520du-after_reaction-quanpu-RT-2
#------------------------
#  r  RuSA-RT-fresh-3  Ru-520H2-RT-2  Ru-520H2-520du-reaction-jinbian-6  Ru-520H2-520du-reaction-jinbian-61  Ru-520H2-520du-reaction-jinbian-62  Ru-520H2-520du-after_reaction-quanpu-RT-2
  0.0000000       0.112765       0.105345       0.09466   0.0974833   0.0941319   0.106959
  0.0920388   0.097291   0.0913429   0.104572       0.103962       0.103621       0.0917283
  0.184078       0.0910499   0.0851237   0.12333       0.118475       0.121459       0.0851171
  0.276117       0.121316       0.112032       0.135222       0.131609       0.132446       0.114159
  0.368155       0.127899       0.118322       0.134097       0.13613       0.131015       0.120061
  0.460194       0.107029       0.0990735   0.12568       0.131091       0.123606       0.0988787
  0.552233       0.148305       0.135336       0.12869       0.12801       0.128601       0.138436
  0.644272       0.231306       0.212336       0.160628       0.151061       0.160788       0.218806
  0.736311       0.277495       0.257416       0.216631       0.208966       0.214171       0.264537
  0.82835       0.284486       0.264011       0.283471       0.286248       0.276721       0.271049
  0.920388       0.318949       0.288237       0.352877       0.3655       0.341564       0.295154
  1.01243       0.405092       0.360314       0.420601       0.434613       0.405623       0.36363
  1.10447       0.48113       0.432582       0.482886       0.486893       0.465982       0.429317
  1.1965       0.515959       0.475539       0.533937       0.520188       0.517326       0.468956
  1.28854       0.548062       0.514152       0.565658       0.534838       0.551771       0.51365
  1.38058       0.616239       0.572218       0.569655       0.531052       0.560858       0.582572
  1.47262       0.678991       0.615678       0.540257       0.507337       0.538392       0.632374
  1.56466       0.665454       0.590725       0.477054       0.461216       0.482729       0.608009
  1.6567       0.549505       0.480452       0.385944       0.391676       0.397752       0.495944
  1.74874       0.363002       0.316563       0.278334       0.30159       0.292355       0.329863
  1.84078       0.172992       0.159774       0.168807       0.198598       0.178705       0.168097
  1.93282       0.0563285   0.0691206   0.0725327   0.0941722   0.0698439   0.0638305
  2.02485       0.0534125   0.0382847   0.0240812   0.0121467   0.0229145   0.0319231
  2.11689       0.0537307   0.0287233   0.0621976   0.0746663   0.0911621   0.0389054
  2.20893       0.0906137   0.0866791   0.0873512   0.119618       0.131477       0.082653
  2.30097       0.137169       0.132329       0.0965174   0.136403       0.144584       0.121786
  2.39301       0.152325       0.140533       0.0958289   0.129085       0.135293       0.135668
  2.48505       0.133496       0.116168       0.0883021   0.105703       0.112136       0.126657
  2.57709       0.100772       0.082283   0.0752938   0.0770191   0.0879705   0.108906
  2.66913       0.0779742   0.0642233   0.06498   0.0577297   0.0786442   0.0957212
  2.76117       0.0755162   0.0717028   0.0751855   0.0616683   0.087242   0.0920764
  2.8532       0.0858859   0.0920549   0.104603       0.0800614   0.0987199   0.0931079
  2.94524       0.093563   0.106584       0.134268       0.0979086   0.101154       0.0903437
  3.03728       0.0879366   0.103475       0.150273       0.108253       0.0916377   0.0831229
  3.12932       0.0769248   0.0892894   0.145879       0.108612       0.0750402   0.0816203
  3.22136       0.0845325   0.0889888   0.121199       0.0997759   0.063976   0.0908156
  3.3134       0.105739       0.105718       0.0832759   0.0858758   0.0694556   0.101695
  3.40544       0.115331       0.114643       0.0484689   0.0733272   0.0828787   0.107181
  3.49748       0.104617       0.104645       0.0463182   0.0664407   0.090261   0.105613
  3.58952       0.0814257   0.0824108   0.0636881   0.0623362   0.0851449   0.0945899
  3.68155       0.0606109   0.0614412   0.0703336   0.0543149   0.0673993   0.072437
  3.77359       0.0498401   0.0488911   0.0608554   0.0387539   0.0410339   0.0454827
  3.86563       0.042314   0.0409195   0.0421439   0.0178712   0.0121941   0.0312533
  3.95767       0.0313975   0.0327941   0.0355585   0.0163658   0.0129233   0.032954
  4.04971       0.0196234   0.0246096   0.0520858   0.0373643   0.0298638   0.0313214
  4.14175       0.020045   0.0243886   0.0686894   0.0531341   0.0371979   0.0315995
  4.23379       0.0311499   0.0357203   0.0736694   0.0589928   0.036769   0.0422544
  4.32583       0.0385185   0.0454761   0.0651016   0.0544119   0.0327954   0.0494932
  4.41786       0.0371205   0.0446382   0.0460068   0.0415767   0.0290992   0.0443192
  4.5099       0.0278753   0.0327639   0.0221719   0.0247648   0.0255627   0.0294689
  4.60194       0.016003   0.0176362   0.000871704   0.0120922   0.0191548   0.0142194
  4.69398       0.0100108   0.0127675   0.0150434   0.0172632   0.00839005   0.00771146
  4.78602       0.0118727   0.0128993   0.0204373   0.0264207   0.00770607   0.00773859
  4.87806       0.0122317   0.00685183   0.0172148   0.0317726   0.0223881   0.0105024
  4.9701       0.00983732   0.00745311   0.0131485   0.0335228   0.0341977   0.0137433
  5.06214       0.011048   0.0147994   0.0207645   0.0332834   0.039816   0.0145122
  5.15418       0.0183894   0.016662   0.0320832   0.0324865   0.0379477   0.0156276
  5.24621       0.0245834   0.0177838   0.0390062   0.0315932   0.0294909   0.0187374
  5.33825       0.0252586   0.0244619   0.0388012   0.0301698   0.0178191   0.0209775
  5.43029       0.0208608   0.0299868   0.0316782   0.0275201   0.0117849   0.0232106
  5.52233       0.0168178   0.027755   0.0204262   0.023204   0.0182174   0.0266795
  5.61437       0.0165118   0.0179754   0.0122572   0.0172719   0.0247013   0.0263112
  5.70641       0.0144815   0.00861524   0.0166875   0.0104059   0.0263598   0.017073
  5.79845       0.0084587   0.012213   0.023449   0.00469388   0.0230776   0.00105079
  5.89049       0.00884938   0.0151066   0.0256558   0.00598792   0.016545   0.0187925
  5.98253       0.0155358   0.0127606   0.0225355   0.00940739   0.00952551   0.0310412
  6.07456       0.0178515   0.0108077   0.0156529   0.0104189   0.00582509   0.0327365
  6.1666       0.0158037   0.0128482   0.00875283   0.00847443   0.00614894   0.0258413
  6.25864       0.0138778   0.0140788   0.00876477   0.0041456   0.00530619   0.0167148
  6.35068       0.0128926   0.0139707   0.0124048   0.00266021   0.00226516   0.00933397
  6.44272       0.00903692   0.01543   0.0131987   0.00841081   0.00557556   0.00060355
  6.53476       0.0064485   0.0168718   0.0100611   0.0135012   0.0124356   0.0111426
  6.6268       0.0141426   0.0148523   0.00431838   0.0169696   0.0187725   0.0216716
  6.71884       0.0205641   0.0103742   0.00588539   0.0187299   0.0231941   0.0255712
  6.81087       0.0212315   0.0108542   0.0131063   0.0192473   0.0249431   0.0209086
  6.90291       0.0171384   0.0154498   0.0185667   0.0191671   0.0238863   0.0114285
  6.99495       0.0126782   0.0166239   0.0208568   0.018845   0.0204317   0.008179
  7.08699       0.0108099   0.0124897   0.0196664   0.0181623   0.0153465   0.0107115
  7.17903       0.0086455   0.00470667   0.0155538   0.0168015   0.0095336   0.007433
  7.27107       0.00465438   0.00375444   0.00987347   0.014639   0.00383796   0.00377796
  7.36311       0.00573989   0.00982896   0.00582677   0.0119021   0.00145762   0.0140201
  7.45515       0.0110442   0.0123959   0.0086947   0.00906663   0.00540323   0.022342
  7.54719       0.0147402   0.0117857   0.0142387   0.00660875   0.00850916   0.0254323
  7.63922       0.0157081   0.00950444   0.019696   0.00477745   0.0109461   0.0229662
  7.73126       0.0138609   0.00833221   0.0248005   0.00365626   0.0131163   0.0160029
  7.8233       0.0108059   0.0111491   0.0294336   0.00346107   0.0153172   0.00634185
  7.91534       0.0116068   0.0161881   0.0331339   0.0040745   0.0174762   0.00627092
  8.00738       0.0165389   0.0203703   0.0351768   0.00475215   0.0190986   0.0156337
  8.09942       0.0200083   0.0215417   0.0349086   0.00501151   0.0194823   0.021607
  8.19146       0.0193272   0.0186547   0.0321167   0.0052376   0.0180895   0.0226694
  8.2835       0.0149349   0.0121886   0.0273752   0.00661726   0.0150733   0.0192497
  8.37554       0.00966342   0.00473376   0.0224269   0.00939686   0.012319   0.0133252
  8.46757       0.00833459   0.00592827   0.0202025   0.0124894   0.0139014   0.00883945
  8.55961       0.0121354   0.0105248   0.0222072   0.0146732   0.0199527   0.0110709
  8.65165       0.0174023   0.012875   0.0260142   0.0150349   0.0267302   0.0163165
  8.74369       0.021933   0.0148677   0.0286093   0.0131607   0.0316749   0.0202318
  8.83573       0.023824   0.017838   0.0284605   0.00936787   0.0334378   0.0215113
  8.92777       0.0219579   0.0197826   0.0253427   0.00555207   0.0316359   0.0201507
  9.01981       0.0169166   0.0182581   0.0200334   0.00691543   0.0268294   0.0167916
  9.11185       0.0111854   0.0130987   0.0141263   0.0113628   0.0204661   0.0121361
  9.20388       0.00860195   0.00803925   0.00993433   0.0146005   0.0147837   0.00688551
  9.29592       0.0093944   0.0100927   0.00912841   0.0153001   0.0121286   0.00355181
  9.38796       0.0095051   0.0140716   0.00976079   0.0132447   0.0121794   0.00630985
  9.48       0.00746743   0.0149832   0.00945068   0.00916713   0.0121252   0.00920993
  9.57204       0.00379186   0.0129311   0.00780014   0.00555035   0.0104494   0.0101384
  9.66408       0.00188833   0.0100984   0.00556649   0.00717462   0.00722982   0.00969212
  9.75612       0.00581036   0.0085918   0.0039526   0.0109108   0.0033801   0.00949787
  9.84816       0.0092148   0.00806207   0.00342291   0.013072   0.00173549   0.0102303
  9.9402       0.0110807   0.00719886   0.00285549   0.0128457   0.00404843   0.0108136
  9.97088       0.0112824   0.00680303   0.00247893   0.0122908   0.00469173   0.0107929